File: fpSelectionWebApp/target/classes/Fluorophores/org/MagnesiumTetramesitylporphyrin.csv
Absorption wavelength (nm);normalized Absorption;emission wavelength (nm);Normalized emission;
350;0.0114;570;0.0141;
352;0.0098;572;0.0150;
354;0.0157;574;0.0160;
356;0.0122;576;0.0165;
358;0.0097;578;0.0168;
360;0.0163;580;0.0170;
362;0.0130;582;0.0173;
364;0.0104;584;0.0189;
366;0.0127;586;0.0221;
368;0.0124;588;0.0280;
370;0.0113;590;0.0372;
372;0.0127;592;0.0529;
374;0.0120;594;0.0810;
376;0.0148;596;0.1328;
378;0.0083;598;0.2215;
380;0.0081;600;0.3437;
382;0.0112;602;0.4818;
384;0.0095;604;0.5665;
386;0.0100;606;0.5826;
388;0.0131;608;0.5459;
390;0.0173;610;0.4799;
392;0.0141;612;0.4129;
394;0.0161;614;0.3575;
396;0.0215;616;0.3181;
398;0.0331;618;0.2839;
400;0.0403;620;0.2523;
402;0.0591;622;0.2232;
404;0.0728;624;0.1980;
406;0.0694;626;0.1778;
408;0.0619;628;0.1680;
410;0.0595;630;0.1673;
412;0.0500;632;0.1737;
414;0.0627;634;0.1842;
416;0.0858;636;0.1965;
418;0.1491;638;0.2125;
420;0.2419;640;0.2327;
422;0.3776;642;0.2605;
424;0.6775;644;0.2914;
426;0.9831;646;0.3322;
428;0.9123;648;0.3893;
430;0.5712;650;0.4704;
432;0.2851;652;0.5697;
434;0.1331;654;0.6718;
436;0.0551;656;0.7597;
438;0.0305;658;0.8461;
440;0.0186;660;0.9231;
442;0.0170;662;0.9836;
444;0.0124;664;1.0000;
446;0.0093;666;0.9630;
448;0.0086;668;0.8771;
450;0.0079;670;0.7587;
452;0.0058;672;0.6312;
454;0.0021;674;0.5098;
456;0.0024;676;0.4106;
458;0.0017;678;0.3329;
460;0.0018;680;0.2743;
462;0.0020;682;0.2264;
464;0.0025;684;0.1856;
466;0.0024;686;0.1504;
468;0.0022;688;0.1241;
470;0.0030;690;0.1014;
472;0.0020;692;0.0851;
474;0.0027;694;0.0726;
476;0.0027;696;0.0629;
478;0.0020;698;0.0562;
480;0.0020;700;0.0517;
482;0.0009;702;0.0486;
484;0.0034;704;0.0471;
486;0.0036;706;0.0460;
488;0.0018;708;0.0464;
490;0.0021;710;0.0463;
492;0.0035;712;0.0466;
494;0.0024;714;0.0471;
497;0.0028;716;0.0479;
499;0.0011;718;0.0479;
501;0.0012;720;0.0484;
503;0.0028;722;0.0486;
505;0.0026;724;0.0477;
507;0.0033;726;0.0474;
509;0.0049;728;0.0463;
511;0.0038;730;0.0448;
513;0.0046;732;0.0422;
515;0.0060;734;0.0396;
517;0.0033;736;0.0369;
519;0.0064;738;0.0336;
521;0.0052;740;0.0306;
523;0.0053;742;0.0273;
525;0.0037;744;0.0239;
527;0.0074;746;0.0208;
529;0.0061;748;0.0179;
531;0.0054;750;0.0154;
533;0.0023;752;0.0137;
535;0.0045;754;0.0119;
537;0.0018;756;0.0104;
539;0.0042;758;0.0092;
541;0.0047;760;0.0084;
543;0.0062;762;0.0073;
545;0.0041;764;0.0067;
547;0.0078;766;0.0063;
549;0.0082;768;0.0057;
551;0.0103;770;0.0055;
553;0.0136;772;0.0051;
555;0.0200;774;0.0048;
557;0.0224;776;0.0046;
559;0.0245;778;0.0045;
561;0.0266;780;0.0041;
563;0.0321;782;0.0044;
565;0.0346;784;0.0041;
567;0.0318;786;0.0041;
569;0.0293;788;0.0041;
571;0.0227;790;0.0040;
573;0.0186;792;0.0039;
575;0.0144;794;0.0039;
577;0.0142;796;0.0040;
579;0.0096;798;0.0038;
581;0.0055;800;0.0036;
583;0.0072;;;
585;0.0043;;;
587;0.0045;;;
589;0.0052;;;
591;0.0039;;;
593;0.0036;;;
595;0.0075;;;
597;0.0061;;;
599;0.0091;;;
601;0.0124;;;
603;0.0120;;;
605;0.0142;;;
607;0.0091;;;
609;0.0075;;;
611;0.0062;;;
613;0.0019;;;
615;0.0026;;;
617;0.0019;;;
619;0.0011;;;
621;0.0010;;;
624;0.0036;;;
627;0.0021;;;
629;0.0033;;;
631;0.0051;;;
634;0.0022;;;
637;0.0010;;;
639;0.0021;;;
643;0.0015;;;
646;0.0017;;;
649;0.0020;;;
651;0.0019;;;
653;0.0020;;;
657;0.0004;;;
659;0.0031;;;
661;0.0033;;;
664;0.0017;;;
669;0.0029;;;
671;0.0000;;;
674;0.0028;;;
676;0.0011;;;
679;0.0005;;;
681;0.0019;;;
683;0.0026;;;
685;0.0008;;;
687;0.0007;;;
689;0.0019;;;
691;0.0020;;;
693;0.0035;;;
695;0.0017;;;
697;0.0013;;;