File: fpSelectionWebApp/target/fpSelectionWebApp-1.0/WEB-INF/classes/Fluorophores/org/MagnesiumPhthalocyanine.csv
Absorption wavelength (nm);normalized Absorption;emission wavelength (nm);Normalized emission;
340;0.2523;660;0.0847;
342;0.2658;662;0.1403;
344;0.2582;664;0.2206;
346;0.2615;666;0.3289;
348;0.2642;668;0.4623;
350;0.2623;670;0.6098;
352;0.2573;672;0.7692;
354;0.2564;674;0.8940;
356;0.2508;676;0.9754;
358;0.2456;678;1.0000;
360;0.2423;680;0.9692;
362;0.2369;682;0.8983;
364;0.2336;684;0.7898;
366;0.2262;686;0.6796;
368;0.2148;688;0.5790;
370;0.2031;690;0.4889;
372;0.1928;692;0.4131;
374;0.1786;694;0.3464;
376;0.1690;696;0.2936;
378;0.1500;698;0.2535;
380;0.1333;700;0.2298;
382;0.1174;702;0.2102;
384;0.1040;704;0.1992;
386;0.0894;706;0.1907;
388;0.0777;708;0.1829;
390;0.0670;710;0.1767;
392;0.0584;712;0.1691;
394;0.0524;714;0.1621;
396;0.0458;716;0.1504;
398;0.0412;718;0.1408;
400;0.0352;720;0.1300;
402;0.0312;722;0.1217;
404;0.0263;724;0.1154;
406;0.0238;726;0.1106;
408;0.0197;728;0.1100;
410;0.0187;730;0.1097;
412;0.0151;732;0.1112;
414;0.0105;734;0.1140;
416;0.0105;736;0.1183;
418;0.0096;738;0.1234;
420;0.0076;740;0.1313;
422;0.0073;742;0.1353;
424;0.0067;744;0.1409;
426;0.0065;746;0.1412;
428;0.0064;748;0.1436;
430;0.0068;750;0.1427;
432;0.0051;752;0.1380;
434;0.0056;754;0.1334;
436;0.0041;756;0.1222;
438;0.0030;758;0.1107;
440;0.0030;760;0.0993;
442;0.0036;762;0.0884;
444;0.0030;764;0.0807;
446;0.0026;766;0.0696;
448;0.0027;768;0.0600;
450;0.0018;770;0.0509;
452;0.0029;772;0.0456;
454;0.0010;774;0.0409;
456;0.0004;776;0.0360;
458;0.0018;778;0.0320;
460;0.0020;780;0.0306;
463;0.0016;782;0.0265;
465;0.0001;784;0.0248;
467;0.0000;786;0.0230;
469;0.0002;788;0.0220;
474;0.0005;790;0.0200;
478;0.0009;792;0.0199;
482;0.0002;794;0.0177;
485;0.0015;796;0.0178;
488;0.0014;798;0.0154;
490;0.0016;800;0.0158;
494;0.0008;;;
496;0.0010;;;
498;0.0011;;;
500;0.0018;;;
502;0.0009;;;
506;0.0003;;;
509;0.0004;;;
511;0.0015;;;
513;0.0010;;;
515;0.0004;;;
517;0.0028;;;
520;0.0017;;;
522;0.0021;;;
524;0.0048;;;
526;0.0017;;;
528;0.0041;;;
530;0.0014;;;
532;0.0024;;;
534;0.0019;;;
536;0.0034;;;
538;0.0047;;;
540;0.0039;;;
542;0.0033;;;
544;0.0043;;;
546;0.0054;;;
548;0.0057;;;
550;0.0068;;;
552;0.0073;;;
554;0.0082;;;
556;0.0104;;;
558;0.0121;;;
560;0.0159;;;
562;0.0168;;;
564;0.0160;;;
566;0.0170;;;
568;0.0189;;;
570;0.0175;;;
572;0.0191;;;
574;0.0202;;;
576;0.0196;;;
578;0.0225;;;
580;0.0248;;;
582;0.0270;;;
584;0.0292;;;
586;0.0295;;;
588;0.0306;;;
590;0.0313;;;
592;0.0347;;;
594;0.0399;;;
596;0.0486;;;
598;0.0604;;;
600;0.0746;;;
602;0.0954;;;
604;0.1192;;;
606;0.1424;;;
608;0.1503;;;
610;0.1501;;;
612;0.1368;;;
614;0.1249;;;
616;0.1162;;;
618;0.1047;;;
620;0.0990;;;
622;0.0882;;;
624;0.0839;;;
626;0.0781;;;
628;0.0742;;;
630;0.0748;;;
632;0.0778;;;
634;0.0841;;;
636;0.0954;;;
638;0.1081;;;
640;0.1179;;;
642;0.1292;;;
644;0.1317;;;
646;0.1321;;;
648;0.1293;;;
650;0.1272;;;
652;0.1316;;;
654;0.1423;;;
656;0.1620;;;
658;0.1918;;;
660;0.2399;;;
662;0.3168;;;
664;0.4353;;;
666;0.5831;;;
668;0.7377;;;
670;0.8704;;;
672;0.9630;;;
674;1.0000;;;
676;0.9607;;;
678;0.8650;;;
680;0.7362;;;
682;0.5935;;;
684;0.4562;;;
686;0.3383;;;
688;0.2422;;;
690;0.1688;;;
692;0.1162;;;
694;0.0847;;;
696;0.0609;;;
698;0.0419;;;
700;0.0295;;;
702;0.0210;;;
704;0.0144;;;
706;0.0123;;;
708;0.0084;;;
710;0.0078;;;
712;0.0051;;;
714;0.0053;;;
716;0.0025;;;
718;0.0027;;;
720;0.0023;;;
722;0.0021;;;
724;0.0008;;;
726;0.0004;;;
729;0.0002;;;
733;0.0004;;;
809;0.0008;;;
811;0.0004;;;
813;0.0022;;;
815;0.0016;;;
817;0.0026;;;
819;0.0024;;;
821;0.0017;;;
823;0.0028;;;
825;0.0020;;;
827;0.0010;;;
829;0.0027;;;
831;0.0050;;;
833;0.0030;;;
835;0.0027;;;
837;0.0018;;;
839;0.0033;;;