File: fpSelection/src/main/resources/ScrapedCSVs/CrystalViolet.csv
Absorption wavelength (nm);normalized Absorption;emission wavelength (nm);Normalized emission;
220;0.2958;560;0.0181;
222;0.1915;562;0.0185;
224;0.1995;564;0.0232;
226;0.1611;566;0.0265;
228;0.1383;568;0.0294;
230;0.1629;570;0.0295;
232;0.1226;572;0.0308;
234;0.1331;574;0.0370;
236;0.1503;576;0.0391;
238;0.1395;578;0.0418;
240;0.1673;580;0.0494;
242;0.1572;582;0.0569;
244;0.2117;584;0.0610;
246;0.1959;586;0.0733;
248;0.2034;588;0.0860;
250;0.2087;590;0.1048;
252;0.2157;592;0.1232;
254;0.2065;594;0.1503;
256;0.2011;596;0.1866;
258;0.1638;598;0.2208;
260;0.1416;600;0.2643;
262;0.1357;602;0.3151;
264;0.1330;604;0.3684;
266;0.1413;606;0.4297;
268;0.1246;608;0.4902;
270;0.0870;610;0.5375;
272;0.1265;612;0.6086;
274;0.1191;614;0.6610;
276;0.1131;616;0.7206;
278;0.1235;618;0.7839;
280;0.1237;620;0.8146;
282;0.1187;622;0.8629;
284;0.1291;624;0.8911;
286;0.1370;626;0.9193;
288;0.1295;628;0.9509;
290;0.1672;630;0.9546;
292;0.1981;632;0.9736;
294;0.1940;634;0.9786;
296;0.2028;636;0.9978;
298;0.2328;638;1.0000;
300;0.2452;640;0.9732;
302;0.2557;642;0.9719;
304;0.2437;644;0.9460;
306;0.2449;646;0.9292;
308;0.2207;648;0.9172;
310;0.1913;650;0.9071;
312;0.1184;652;0.8974;
314;0.1226;654;0.8894;
316;0.1156;656;0.8864;
318;0.1444;658;0.8528;
320;0.0594;660;0.8280;
322;0.1521;662;0.8057;
324;0.1476;664;0.7905;
326;0.0678;666;0.7794;
328;0.1099;668;0.7597;
330;0.0614;670;0.7539;
332;0.0552;672;0.7299;
334;0.0767;674;0.7215;
336;0.0498;676;0.7133;
338;0.0310;678;0.6819;
340;0.0045;680;0.6550;
342;0.0016;682;0.6453;
344;0.0529;684;0.6320;
346;0.0282;686;0.6315;
348;0.0386;688;0.6191;
350;0.0090;690;0.5983;
352;0.0151;692;0.5925;
355;0.0415;694;0.5772;
357;0.0353;696;0.5655;
359;0.0343;698;0.5461;
361;0.0527;700;0.5258;
363;0.0864;702;0.5160;
365;0.0523;704;0.4982;
367;0.0243;706;0.5038;
369;0.0046;708;0.4792;
371;0.0392;710;0.4631;
373;0.0006;712;0.4584;
375;0.0436;714;0.4441;
377;0.0160;716;0.4310;
379;0.0376;718;0.4329;
381;0.0499;720;0.4167;
383;0.0531;722;0.4094;
385;0.0210;724;0.3872;
388;0.0343;726;0.3531;
391;0.0487;728;0.3617;
394;0.0069;730;0.3435;
396;0.0368;732;0.3418;
399;0.0215;734;0.3381;
401;0.0056;736;0.3284;
403;0.0079;738;0.3206;
406;0.0456;740;0.3082;
408;0.0040;742;0.2962;
410;0.0091;744;0.2832;
413;0.0441;746;0.2843;
416;0.0283;748;0.2699;
419;0.0155;750;0.2725;
421;0.0105;752;0.2646;
425;0.0573;754;0.2607;
427;0.0160;756;0.2539;
429;0.0079;758;0.2329;
431;0.0242;760;0.2270;
434;0.0252;762;0.2096;
436;0.0129;764;0.2108;
438;0.0091;766;0.1993;
440;0.0134;768;0.2182;
442;0.0300;770;0.2143;
444;0.0345;772;0.1783;
447;0.0180;774;0.1982;
451;0.0189;776;0.1861;
453;0.0313;778;0.1867;
455;0.0169;780;0.2069;
457;0.0281;782;0.1927;
459;0.0464;784;0.1597;
461;0.0400;786;0.1894;
463;0.0978;788;0.1665;
465;0.0668;790;0.1498;
467;0.0548;792;0.1513;
469;0.0395;794;0.1373;
471;0.0740;796;0.1667;
473;0.0792;798;0.1143;
475;0.1162;800;0.1416;
477;0.0581;;;
479;0.1216;;;
481;0.1119;;;
483;0.1131;;;
485;0.1451;;;
487;0.1262;;;
489;0.1669;;;
491;0.1618;;;
493;0.1532;;;
495;0.1607;;;
497;0.2232;;;
499;0.2206;;;
501;0.2120;;;
503;0.2451;;;
505;0.2647;;;
507;0.2979;;;
509;0.3278;;;
511;0.3097;;;
513;0.3544;;;
515;0.3472;;;
517;0.4021;;;
519;0.4437;;;
521;0.4413;;;
523;0.4667;;;
525;0.4903;;;
527;0.4984;;;
529;0.5371;;;
531;0.5547;;;
533;0.6003;;;
535;0.5881;;;
537;0.5728;;;
539;0.6115;;;
541;0.6390;;;
543;0.6911;;;
545;0.6581;;;
547;0.6566;;;
549;0.6650;;;
551;0.6803;;;
553;0.6583;;;
555;0.6855;;;
557;0.6812;;;
559;0.6621;;;
561;0.7112;;;
563;0.6970;;;
565;0.7383;;;
567;0.7577;;;
569;0.7456;;;
571;0.8039;;;
573;0.8091;;;
575;0.8170;;;
577;0.8914;;;
579;0.8906;;;
581;0.9147;;;
583;0.9481;;;
585;0.9629;;;
587;0.9863;;;
589;0.9813;;;
591;0.9795;;;
593;0.9568;;;
595;0.9522;;;
597;0.9308;;;
599;0.8818;;;
601;0.8408;;;
603;0.8187;;;
605;0.7613;;;
607;0.7067;;;
609;0.6633;;;
611;0.5899;;;
613;0.5352;;;
615;0.4337;;;
617;0.4363;;;
619;0.3185;;;
621;0.3740;;;
623;0.2837;;;
625;0.2624;;;
627;0.2051;;;
629;0.1984;;;
631;0.1632;;;
633;0.1558;;;
635;0.1241;;;
637;0.1104;;;
639;0.1191;;;
641;0.0655;;;
643;0.0698;;;
645;0.0557;;;
647;0.0326;;;
649;0.0316;;;
651;0.0336;;;
653;0.0476;;;
655;0.0398;;;
657;0.0215;;;
659;0.0061;;;
661;0.0117;;;
664;0.0338;;;
666;0.0105;;;
668;0.0097;;;
670;0.0378;;;
672;0.0152;;;
675;0.0417;;;
677;0.0172;;;
679;0.0065;;;
682;0.0161;;;
687;0.0159;;;
689;0.0047;;;
691;0.0106;;;
696;0.0066;;;
698;0.0105;;;
700;0.0375;;;
702;0.0195;;;
704;0.0119;;;
707;0.0066;;;
709;0.0177;;;
711;0.0166;;;
713;0.0052;;;
715;0.0291;;;
717;0.0342;;;
719;0.0199;;;