File: fpSelection/src/main/resources/ScrapedCSVs/MagnesiumTetraphenylporphyrin.csv
Absorption wavelength (nm);normalized Absorption;emission wavelength (nm);Normalized emission;
285;0.0278;575;0.0202;
287;0.0291;577;0.0204;
289;0.0206;579;0.0209;
291;0.0254;581;0.0218;
293;0.0301;583;0.0234;
295;0.0338;585;0.0269;
297;0.0284;587;0.0331;
299;0.0240;589;0.0448;
301;0.0305;591;0.0653;
303;0.0218;593;0.1023;
305;0.0242;595;0.1651;
307;0.0298;597;0.2621;
309;0.0253;599;0.3996;
311;0.0265;601;0.5578;
313;0.0356;603;0.7120;
315;0.0287;605;0.8223;
317;0.0269;607;0.8836;
319;0.0329;609;0.8940;
321;0.0265;611;0.8638;
323;0.0214;613;0.8045;
325;0.0338;615;0.7312;
327;0.0279;617;0.6564;
329;0.0224;619;0.5824;
331;0.0200;621;0.5164;
333;0.0228;623;0.4552;
335;0.0225;625;0.3992;
337;0.0249;627;0.3533;
339;0.0168;629;0.3184;
341;0.0151;631;0.2962;
343;0.0158;633;0.2822;
345;0.0169;635;0.2774;
347;0.0138;637;0.2786;
349;0.0170;639;0.2882;
351;0.0203;641;0.3061;
353;0.0159;643;0.3331;
355;0.0138;645;0.3724;
357;0.0122;647;0.4261;
359;0.0186;649;0.4955;
361;0.0111;651;0.5789;
363;0.0136;653;0.6718;
365;0.0143;655;0.7622;
367;0.0191;657;0.8479;
369;0.0140;659;0.9226;
371;0.0125;661;0.9775;
373;0.0148;663;1.0000;
375;0.0144;665;0.9848;
377;0.0127;667;0.9444;
379;0.0126;669;0.8790;
381;0.0152;671;0.7968;
383;0.0156;673;0.6962;
385;0.0123;675;0.5982;
387;0.0154;677;0.5089;
389;0.0161;679;0.4315;
391;0.0160;681;0.3645;
393;0.0158;683;0.3038;
395;0.0188;685;0.2526;
397;0.0313;687;0.2099;
399;0.0469;689;0.1767;
401;0.0611;691;0.1500;
403;0.0730;693;0.1277;
405;0.0785;695;0.1083;
407;0.0736;697;0.0932;
409;0.0710;699;0.0816;
411;0.0684;701;0.0731;
413;0.0767;703;0.0670;
415;0.0951;705;0.0614;
417;0.1564;707;0.0582;
419;0.2490;709;0.0563;
421;0.4383;711;0.0543;
423;0.7391;713;0.0535;
425;0.9695;715;0.0535;
427;0.9631;717;0.0532;
429;0.7719;719;0.0533;
431;0.5108;721;0.0527;
433;0.2910;723;0.0523;
435;0.1516;725;0.0517;
437;0.0694;727;0.0502;
439;0.0394;729;0.0492;
441;0.0257;731;0.0474;
443;0.0183;733;0.0452;
445;0.0145;735;0.0427;
447;0.0122;737;0.0399;
449;0.0093;739;0.0371;
451;0.0072;741;0.0348;
453;0.0075;743;0.0317;
455;0.0054;745;0.0282;
457;0.0063;747;0.0253;
459;0.0026;749;0.0229;
461;0.0042;751;0.0198;
463;0.0053;753;0.0177;
465;0.0035;755;0.0158;
467;0.0038;757;0.0143;
469;0.0034;759;0.0121;
471;0.0049;761;0.0113;
473;0.0047;763;0.0100;
475;0.0013;765;0.0092;
477;0.0027;767;0.0084;
479;0.0030;769;0.0078;
481;0.0044;771;0.0072;
483;0.0044;773;0.0063;
485;0.0046;775;0.0063;
487;0.0049;777;0.0058;
489;0.0042;779;0.0056;
491;0.0029;781;0.0054;
493;0.0049;783;0.0053;
495;0.0066;785;0.0049;
497;0.0061;787;0.0048;
499;0.0036;789;0.0049;
501;0.0048;791;0.0048;
503;0.0082;793;0.0045;
505;0.0050;795;0.0043;
507;0.0041;797;0.0043;
509;0.0039;799;0.0041;
511;0.0055;;;
513;0.0054;;;
515;0.0076;;;
517;0.0062;;;
519;0.0079;;;
521;0.0057;;;
523;0.0084;;;
525;0.0084;;;
527;0.0101;;;
529;0.0076;;;
531;0.0082;;;
533;0.0077;;;
535;0.0073;;;
537;0.0087;;;
539;0.0079;;;
541;0.0086;;;
543;0.0093;;;
545;0.0104;;;
547;0.0131;;;
549;0.0158;;;
551;0.0183;;;
553;0.0205;;;
555;0.0254;;;
557;0.0296;;;
559;0.0336;;;
561;0.0351;;;
563;0.0377;;;
565;0.0382;;;
567;0.0335;;;
569;0.0290;;;
571;0.0241;;;
573;0.0216;;;
575;0.0163;;;
577;0.0159;;;
579;0.0123;;;
581;0.0100;;;
583;0.0097;;;
585;0.0089;;;
587;0.0081;;;
589;0.0078;;;
591;0.0083;;;
593;0.0098;;;
595;0.0126;;;
597;0.0114;;;
599;0.0166;;;
601;0.0172;;;
603;0.0200;;;
605;0.0166;;;
607;0.0171;;;
609;0.0142;;;
611;0.0127;;;
613;0.0104;;;
615;0.0074;;;
617;0.0042;;;
619;0.0053;;;
621;0.0050;;;
623;0.0034;;;
625;0.0062;;;
627;0.0062;;;
629;0.0015;;;
631;0.0048;;;
633;0.0044;;;
635;0.0023;;;
637;0.0013;;;
639;0.0031;;;
641;0.0025;;;
643;0.0032;;;
645;0.0009;;;
647;0.0028;;;
649;0.0018;;;
651;0.0054;;;
653;0.0019;;;
655;0.0042;;;
657;0.0045;;;
659;0.0008;;;
661;0.0027;;;
664;0.0029;;;
666;0.0024;;;
668;0.0066;;;
671;0.0040;;;
674;0.0059;;;
676;0.0027;;;
678;0.0040;;;
680;0.0045;;;
682;0.0047;;;
684;0.0012;;;
686;0.0036;;;
688;0.0040;;;
691;0.0041;;;
693;0.0010;;;
695;0.0008;;;
698;0.0049;;;
700;0.0014;;;
702;0.0007;;;
704;0.0009;;;
706;0.0001;;;
708;0.0026;;;
710;0.0016;;;
712;0.0030;;;
715;0.0007;;;
717;0.0044;;;
719;0.0062;;;
723;0.0028;;;
725;0.0023;;;
727;0.0055;;;
729;0.0022;;;
731;0.0024;;;
733;0.0032;;;
735;0.0030;;;
737;0.0002;;;
739;0.0017;;;
741;0.0054;;;
743;0.0062;;;
745;0.0001;;;
750;0.0046;;;
752;0.0039;;;
754;0.0010;;;
758;0.0047;;;
760;0.0042;;;
762;0.0036;;;
765;0.0057;;;
767;0.0004;;;
769;0.0014;;;
771;0.0048;;;
773;0.0019;;;
775;0.0056;;;
777;0.0038;;;
780;0.0031;;;
782;0.0041;;;
785;0.0058;;;
787;0.0014;;;
790;0.0070;;;
792;0.0017;;;
796;0.0021;;;
799;0.0049;;;