File: fpSelectionWebApp/src/main/resources/Fluorophores.org/MagnesiumOctaethylporphyrin.csv
Absorption wavelength (nm);normalized Absorption;emission wavelength (nm);Normalized emission;
285;0.0456;555;0.0145;
287;0.0514;557;0.0162;
289;0.0490;559;0.0174;
291;0.0344;561;0.0193;
293;0.0435;563;0.0232;
295;0.0392;565;0.0318;
297;0.0434;567;0.0484;
299;0.0374;569;0.0787;
301;0.0347;571;0.1354;
303;0.0386;573;0.2384;
305;0.0448;575;0.4134;
307;0.0478;577;0.6569;
309;0.0491;579;0.8785;
311;0.0493;581;0.9896;
313;0.0571;583;0.9809;
315;0.0662;585;0.8680;
317;0.0620;587;0.6956;
319;0.0599;589;0.5230;
321;0.0715;591;0.3901;
323;0.0717;593;0.2990;
325;0.0772;595;0.2341;
327;0.0722;597;0.1904;
329;0.0695;599;0.1656;
331;0.0787;601;0.1591;
333;0.0767;603;0.1705;
335;0.0797;605;0.1908;
337;0.0694;607;0.2106;
339;0.0736;609;0.2234;
341;0.0676;611;0.2306;
343;0.0657;613;0.2380;
345;0.0619;615;0.2512;
347;0.0635;617;0.2733;
349;0.0560;619;0.3030;
351;0.0551;621;0.3415;
353;0.0544;623;0.3907;
355;0.0555;625;0.4455;
357;0.0500;627;0.5005;
359;0.0515;629;0.5488;
361;0.0529;631;0.5934;
363;0.0530;633;0.6389;
365;0.0562;635;0.6873;
367;0.0553;637;0.7171;
369;0.0548;639;0.7086;
371;0.0598;641;0.6538;
373;0.0594;643;0.5591;
375;0.0607;645;0.4488;
377;0.0604;647;0.3445;
379;0.0705;649;0.2549;
381;0.0726;651;0.1891;
383;0.0906;653;0.1445;
385;0.1041;655;0.1140;
387;0.1316;657;0.0919;
389;0.1356;659;0.0753;
391;0.1354;661;0.0637;
393;0.1301;663;0.0562;
395;0.1410;665;0.0514;
397;0.1798;667;0.0484;
399;0.2274;669;0.0464;
401;0.2867;671;0.0447;
403;0.3783;673;0.0427;
405;0.5232;675;0.0406;
407;0.7468;677;0.0387;
409;0.9663;679;0.0371;
411;0.9654;681;0.0363;
413;0.7308;683;0.0355;
415;0.5093;685;0.0346;
417;0.2992;687;0.0341;
419;0.1596;689;0.0333;
421;0.0864;691;0.0322;
423;0.0501;693;0.0305;
425;0.0399;695;0.0288;
427;0.0308;697;0.0266;
429;0.0270;699;0.0244;
431;0.0243;;;
433;0.0207;;;
435;0.0225;;;
437;0.0173;;;
439;0.0149;;;
441;0.0157;;;
443;0.0156;;;
445;0.0187;;;
447;0.0118;;;
449;0.0155;;;
451;0.0157;;;
453;0.0168;;;
455;0.0156;;;
457;0.0141;;;
459;0.0145;;;
461;0.0174;;;
463;0.0134;;;
465;0.0152;;;
467;0.0143;;;
469;0.0145;;;
471;0.0145;;;
473;0.0129;;;
475;0.0142;;;
477;0.0154;;;
479;0.0144;;;
481;0.0154;;;
483;0.0138;;;
485;0.0142;;;
487;0.0157;;;
489;0.0140;;;
491;0.0133;;;
493;0.0152;;;
495;0.0155;;;
497;0.0160;;;
499;0.0136;;;
501;0.0156;;;
503;0.0152;;;
505;0.0174;;;
507;0.0147;;;
509;0.0154;;;
511;0.0150;;;
513;0.0164;;;
515;0.0156;;;
517;0.0133;;;
519;0.0138;;;
521;0.0154;;;
523;0.0178;;;
525;0.0166;;;
527;0.0175;;;
529;0.0229;;;
531;0.0244;;;
533;0.0289;;;
535;0.0334;;;
537;0.0384;;;
539;0.0436;;;
541;0.0489;;;
543;0.0507;;;
545;0.0519;;;
547;0.0502;;;
549;0.0453;;;
551;0.0364;;;
553;0.0302;;;
555;0.0274;;;
557;0.0251;;;
559;0.0226;;;
561;0.0182;;;
563;0.0183;;;
565;0.0195;;;
567;0.0197;;;
569;0.0200;;;
571;0.0212;;;
573;0.0240;;;
575;0.0293;;;
577;0.0396;;;
579;0.0526;;;
581;0.0559;;;
583;0.0487;;;
585;0.0373;;;
587;0.0232;;;
589;0.0176;;;
591;0.0123;;;
593;0.0105;;;
595;0.0115;;;
597;0.0106;;;
599;0.0096;;;
601;0.0078;;;
603;0.0088;;;
605;0.0104;;;
607;0.0077;;;
609;0.0099;;;
611;0.0090;;;
613;0.0059;;;
615;0.0072;;;
617;0.0050;;;
619;0.0070;;;
621;0.0077;;;
623;0.0095;;;
625;0.0103;;;
627;0.0103;;;
629;0.0061;;;
631;0.0086;;;
633;0.0083;;;
635;0.0056;;;
637;0.0100;;;
639;0.0086;;;
641;0.0056;;;
643;0.0059;;;
645;0.0080;;;
647;0.0055;;;
649;0.0088;;;
651;0.0044;;;
653;0.0086;;;
655;0.0047;;;
657;0.0098;;;
659;0.0059;;;
661;0.0076;;;
663;0.0070;;;
665;0.0051;;;
667;0.0074;;;
669;0.0065;;;
671;0.0048;;;
673;0.0086;;;
675;0.0048;;;
677;0.0055;;;
679;0.0053;;;
681;0.0072;;;
683;0.0048;;;
685;0.0060;;;
687;0.0078;;;
689;0.0052;;;
691;0.0058;;;
693;0.0082;;;
695;0.0063;;;
697;0.0062;;;
699;0.0047;;;
701;0.0035;;;
703;0.0057;;;
705;0.0051;;;
707;0.0064;;;
709;0.0027;;;
711;0.0109;;;
713;0.0055;;;
715;0.0070;;;
717;0.0071;;;
719;0.0070;;;
721;0.0069;;;
723;0.0019;;;
725;0.0029;;;
727;0.0074;;;
729;0.0074;;;
731;0.0080;;;
733;0.0050;;;
735;0.0117;;;
737;0.0120;;;
739;0.0076;;;
741;0.0028;;;
743;0.0044;;;
745;0.0017;;;
747;0.0051;;;
749;0.0030;;;
751;0.0090;;;
753;0.0109;;;
755;0.0030;;;
757;0.0047;;;
759;0.0098;;;
761;0.0074;;;
763;0.0086;;;
765;0.0116;;;
767;0.0072;;;
770;0.0027;;;
772;0.0084;;;
774;0.0060;;;
776;0.0063;;;
778;0.0071;;;
780;0.0128;;;
782;0.0085;;;
784;0.0067;;;
786;0.0138;;;
788;0.0041;;;
790;0.0022;;;
792;0.0068;;;
794;0.0038;;;
798;0.0004;;;
799;0.0140;;;